XRay (ID 01) / Kristallwinkel θ_c	XRay (ID 01) / Impulse Imp
θ_c/°	Imp/# / s

6.5	4
6.6	3
6.7	3
6.8	3
6.9	5
7.0	1
7.1	4
7.2	1
7.3	2
7.4	1
7.5	2
7.6	3
7.7	2
7.8	1
7.9	2
8.0	1
8.1	2
8.2	3
8.3	2
8.4	3
8.5	1
8.6	1
8.7	4
8.8	5
8.9	11
9.0	12
9.1	22
9.2	22
9.3	32
9.4	43
9.5	48
9.6	55
9.7	50
9.8	65
9.9	57
10.0	67
10.1	61
10.2	70
10.3	88
10.4	79
10.5	87
