XRay (ID 01) / Kristallwinkel θ_c	XRay (ID 01) / Impulse Imp
θ_c/°	Imp/# / s


8.1	2
8.2	1
8.3	0
8.4	1
8.5	0
8.6	0
8.7	0
8.8	1
8.9	1
9.0	3
9.1	2
9.2	1
9.3	1
9.4	1
9.5	1
9.6	1
9.7	0
9.8	2
9.9	1
10.0	3
10.1	4
10.2	8
10.3	12
10.4	24
10.5	22
